File: data/huawei/huawei_sun2000_20220903183631.csv
local_time,input_power,day_active_power_peak,active_power,accumulated_yield_energy,daily_yield_energy,grid_voltage_a_phase,b_phase_voltage,c_phase_voltage,power_meter_active_power,grid_frequency,grid_exported_energy,grid_accumulated_energy,storage_state_of_capacity,storage_charge_discharge_power,storage_current_day_charge_capacity,storage_current_day_discharge_capacity,backup_switch_to_off_grid,a_phase_active_power,b_phase_active_power,c_phase_active_power,forward_energy
2022-09-03T18:37:07.103465,,,,,,,,,,,,,,,,,,0.001,0.001,0.03,10.33125
2022-09-03T18:50:15.6422,0.141,6.186,1.561,7167.7,28.98,230.8,232.5,232.8,0.066,49.95,6182.95,855.59,92.0,-1.42,7.44,4.56,0.0,0.001,0.001,0.03,10.34
2022-09-03T19:03:30.1872,0.135,6.186,0.706,7167.85,29.13,231.6,231.6,234.6,0.001,50.0,6182.95,855.61,91.0,-0.571,7.45,4.75,0.0,0.001,0.001,0.03,10.3475
2022-09-03T19:16:45.0877,0.064,6.186,0.617,7168.01,29.29,228.6,232.8,233.5,-0.039,49.99,6182.95,855.63,91.0,-0.553,7.45,4.93,0.0,0.002,0.001,0.03,10.355
2022-09-03T19:29:59.6392,0.012,6.186,0.845,7168.17,29.45,229.1,234.1,234.0,-0.044,49.97,6182.95,855.63,90.0,-0.833,7.45,5.11,0.0,0.002,0.001,0.03,10.3625
2022-09-03T19:43:13.715,0.0,6.186,2.464,7168.35,29.63,224.0,236.8,231.6,-0.015,49.93,6182.95,855.63,89.0,-2.464,7.45,5.35,0.0,0.002,0.001,0.029,10.37
2022-09-03T19:56:27.7571,0.0,6.186,0.772,7168.55,29.83,228.3,233.1,232.0,0.014,49.99,6182.95,855.64,89.0,-0.772,7.45,5.63,0.0,0.001,0.001,0.03,10.37625
2022-09-03T20:09:46.0565,,,,,,,,,,,,,,,,,,0.001,0.001,0.03,10.385
2022-09-03T20:22:54.8037,0.0,6.186,0.694,7168.86,30.14,230.3,235.0,230.6,0.009,50.0,6182.95,855.64,87.0,-0.694,7.45,6.03,0.0,0.001,0.001,0.029,10.3925
2022-09-03T20:36:09.113448,0.0,6.186,0.841,7169.04,30.32,229.3,230.3,234.1,-0.026,49.97,6182.95,855.64,87.0,-0.841,7.45,6.27,0.0,0.001,0.001,0.03,10.39875
2022-09-03T20:49:23.3522,0.0,6.186,2.358,7169.3,30.58,225.8,236.0,234.6,-0.022,50.0,6182.95,855.65,86.0,-2.358,7.46,6.57,0.0,0.002,0.001,0.03,10.4075
2022-09-03T21:02:37.9966,0.0,6.186,0.439,7169.5,30.78,229.1,231.3,233.8,0.008,49.95,6182.95,855.65,85.0,-0.439,7.46,6.87,0.0,0.001,0.001,0.03,10.415
2022-09-03T21:15:52.8442,0.0,6.186,0.403,7169.59,30.87,230.3,234.1,233.1,-0.001,50.0,6182.95,855.65,85.0,-0.404,7.46,7.01,0.0,0.001,0.001,0.03,10.42125
2022-09-03T21:29:07.444269,0.0,6.186,0.52,7169.7,30.98,231.0,233.3,234.3,0.01,50.0,6182.95,855.65,84.0,-0.52,7.46,7.14,0.0,0.001,0.001,0.03,10.43
2022-09-03T21:42:22.2045,0.0,6.186,0.597,7169.82,31.1,230.5,233.3,233.1,-0.003,50.0,6182.95,855.65,84.0,-0.597,7.46,7.32,0.0,0.002,0.001,0.03,10.4375
2022-09-03T21:55:36.9126,0.0,6.186,0.506,7169.94,31.22,230.6,231.1,234.1,0.0,50.0,6182.95,855.65,83.0,-0.506,7.46,7.51,0.0,0.001,0.001,0.03,10.445
2022-09-03T22:08:51.8763,0.0,6.186,0.438,7170.05,31.33,232.6,233.3,233.0,0.0,49.97,6182.95,855.65,83.0,-0.438,7.46,7.68,0.0,0.001,0.001,0.03,10.4525
2022-09-03T22:22:06.692125,0.0,6.186,0.273,7170.15,31.43,232.8,232.6,233.1,-0.001,50.0,6182.95,855.65,82.0,-0.273,7.46,7.81,0.0,0.001,0.001,0.03,10.46
2022-09-03T22:35:21.7525,0.0,6.186,2.296,7170.37,31.65,224.8,237.1,236.6,-0.054,49.97,6182.95,855.65,81.0,-2.296,7.46,8.06,0.0,0.002,0.001,0.03,10.4675
2022-09-03T22:48:35.7198,0.0,6.186,0.331,7170.77,32.05,228.8,237.1,231.3,0.017,50.0,6182.95,855.65,80.0,-0.331,7.46,8.53,0.0,0.001,0.001,0.03,10.475
2022-09-03T23:01:50.4021,0.0,6.186,0.243,7170.84,32.12,231.8,238.8,234.3,0.002,49.95,6182.95,855.65,79.0,-0.243,7.46,8.65,0.0,0.001,0.001,0.03,10.48125
2022-09-03T23:15:04.275311,0.0,6.186,0.316,7170.9,32.18,233.3,237.6,234.8,-0.001,49.97,6182.95,855.65,79.0,-0.316,7.46,8.77,0.0,0.001,0.001,0.03,10.49
2022-09-03T23:28:18.5384,0.0,6.186,0.215,7170.95,32.23,234.5,235.6,234.1,0.0,50.0,6182.95,855.65,79.0,-0.215,7.46,8.85,0.0,0.001,0.001,0.03,10.4975
2022-09-03T23:41:33.8026,0.0,6.186,0.359,7171.0,32.28,231.5,233.3,233.1,-0.004,50.02,6182.95,855.65,78.0,-0.359,7.46,8.95,0.0,0.001,0.001,0.03,10.50375
2022-09-03T23:54:48.2049,0.0,6.186,0.365,7171.09,32.37,231.8,233.5,232.8,0.0,50.0,6182.95,855.65,78.0,-0.365,7.46,9.07,0.0,0.001,0.001,0.03,10.51125
2022-09-04T00:08:03.110670,0.0,0.281,0.102,7171.13,0.01,233.5,233.3,233.3,-0.001,49.97,6182.95,855.65,78.0,-0.102,0.0,0.06,0.0,0.001,0.001,0.03,10.52
2022-09-04T00:21:18.0318,0.0,0.281,0.165,7171.18,0.06,233.6,233.6,231.3,0.002,49.97,6182.95,855.65,77.0,-0.165,0.0,0.15,0.0,0.001,0.001,0.029,10.52625
2022-09-04T00:34:31.9146,0.0,0.289,0.239,7171.22,0.1,231.6,233.8,232.6,-0.001,50.0,6182.95,855.65,77.0,-0.239,0.0,0.23,0.0,0.001,0.001,0.03,10.53375
2022-09-04T00:47:46.3244,0.0,0.289,0.14,7171.25,0.13,231.6,231.8,232.0,-0.002,50.0,6182.95,855.65,77.0,-0.14,0.0,0.3,0.0,0.001,0.001,0.029,10.5425
2022-09-04T01:01:01.139842,0.0,0.374,0.137,7171.29,0.17,233.8,233.1,232.5,0.0,49.95,6182.95,855.65,76.0,-0.137,0.0,0.39,0.0,0.001,0.001,0.03,10.54875
2022-09-04T01:14:15.321,0.0,0.374,0.091,7171.32,0.2,234.3,234.8,234.1,0.001,49.97,6182.95,855.65,76.0,-0.091,0.0,0.46,0.0,0.001,0.001,0.03,10.55625
2022-09-04T01:27:29.5588,0.0,0.374,0.177,7171.34,0.22,232.6,234.3,233.1,-0.001,49.99,6182.95,855.65,76.0,-0.177,0.0,0.52,0.0,0.001,0.001,0.03,10.56375
2022-09-04T01:40:46.2166,0.0,0.374,0.121,7171.37,0.25,232.1,234.6,233.8,0.001,50.0,6182.95,855.65,76.0,-0.122,0.0,0.59,0.0,0.001,0.001,0.03,10.57125
2022-09-04T01:53:55.8992,0.0,0.374,0.114,7171.4,0.28,235.8,236.1,236.1,0.0,50.0,6182.95,855.65,76.0,-0.114,0.0,0.67,0.0,0.001,0.001,0.03,10.58
2022-09-04T02:07:10.5264,0.0,0.374,0.163,7171.43,0.31,232.1,235.1,233.6,0.0,49.97,6182.95,855.65,75.0,-0.163,0.0,0.74,0.0,0.001,0.001,0.03,10.58625
2022-09-04T02:20:24.3722,0.0,0.374,0.061,7171.45,0.33,230.8,234.8,231.6,0.0,50.0,6182.95,855.65,75.0,-0.061,0.0,0.8,0.0,0.001,0.001,0.029,10.59375
2022-09-04T02:33:39.0322,0.0,0.374,0.065,7171.47,0.35,232.3,233.6,232.1,-0.001,49.99,6182.95,855.65,75.0,-0.065,0.0,0.87,0.0,0.001,0.001,0.029,10.60125
2022-09-04T02:46:53.904,0.0,0.374,0.207,7171.5,0.38,233.8,233.8,232.8,0.001,50.0,6182.95,855.65,75.0,-0.207,0.0,0.94,0.0,0.001,0.001,0.03,10.60875
2022-09-04T03:00:08.856668,0.0,0.374,0.112,7171.53,0.41,235.8,233.3,233.6,0.0,49.97,6182.95,855.65,75.0,-0.112,0.0,1.01,0.0,0.001,0.001,0.03,10.61625
2022-09-04T03:13:23.2884,0.0,0.374,0.062,7171.55,0.43,232.1,233.8,233.3,0.0,50.0,6182.95,855.65,74.0,-0.062,0.0,1.08,0.0,0.001,0.001,0.03,10.62375
2022-09-04T03:26:37.6199,0.0,0.374,0.154,7171.57,0.45,233.0,234.6,232.8,-0.001,49.99,6182.95,855.65,74.0,-0.154,0.0,1.14,0.0,0.002,0.001,0.03,10.63125
2022-09-04T03:39:52.1925,0.0,0.374,0.112,7171.59,0.47,233.8,234.1,234.6,0.002,50.0,6182.95,855.65,74.0,-0.112,0.0,1.19,0.0,0.001,0.001,0.03,10.6375
2022-09-04T03:53:06.508106,0.0,0.374,0.1,7171.62,0.5,232.8,233.6,232.6,-0.002,50.0,6182.95,855.65,74.0,-0.1,0.0,1.28,0.0,0.002,0.001,0.029,10.64625
2022-09-04T04:06:21.5952,0.0,0.657,0.65,7171.67,0.55,232.5,234.8,233.8,0.001,49.99,6182.95,855.65,73.0,-0.65,0.0,1.37,0.0,0.001,0.001,0.03,10.65375
2022-09-04T04:19:36.3547,0.0,0.657,0.523,7171.79,0.67,231.0,235.8,234.1,0.002,50.0,6182.95,855.65,73.0,-0.523,0.0,1.5,0.0,0.001,0.001,0.03,10.66
2022-09-04T04:32:50.3137,0.0,0.657,0.528,7171.91,0.79,233.8,235.6,235.1,-0.006,50.0,6182.95,855.65,72.0,-0.528,0.0,1.7,0.0,0.001,0.001,0.03,10.66875
2022-09-04T04:46:05.041228,0.0,0.75,0.561,7172.04,0.92,232.6,235.8,234.8,0.002,49.97,6182.95,855.65,72.0,-0.561,0.0,1.85,0.0,0.001,0.001,0.03,10.67625
2022-09-04T04:59:19.5977,0.0,0.75,0.552,7172.16,1.04,231.6,234.3,233.8,-0.006,50.0,6182.95,855.65,71.0,-0.552,0.0,2.03,0.0,0.001,0.001,0.03,10.68375
2022-09-04T05:12:34.4405,0.0,0.778,0.098,7172.21,1.09,234.0,233.6,233.6,0.0,49.97,6182.95,855.65,71.0,-0.098,0.0,2.16,0.0,0.001,0.001,0.03,10.69125
2022-09-04T05:25:49.0252,0.0,0.778,0.063,7172.24,1.12,233.8,234.8,233.6,0.001,49.97,6182.95,855.65,71.0,-0.063,0.0,2.22,0.0,0.001,0.001,0.03,10.69875
2022-09-04T05:39:03.997376,0.0,0.778,0.168,7172.26,1.14,233.6,232.8,233.3,0.0,50.0,6182.95,855.65,71.0,-0.168,0.0,2.28,0.0,0.001,0.001,0.03,10.705
2022-09-04T05:52:18.3503,0.0,0.778,0.093,7172.28,1.16,233.8,234.6,234.6,-0.001,49.99,6182.95,855.65,70.0,-0.093,0.0,2.35,0.0,0.001,0.001,0.03,10.7125
2022-09-04T06:05:32.9085,0.0,0.778,0.101,7172.31,1.19,234.8,234.1,233.5,-0.002,49.97,6182.95,855.65,70.0,-0.101,0.0,2.42,0.0,0.001,0.001,0.03,10.71875
2022-09-04T06:18:47.4824,0.0,0.778,0.201,7172.33,1.21,235.3,234.3,232.8,0.0,50.0,6182.95,855.65,70.0,-0.201,0.0,2.48,0.0,0.001,0.001,0.029,10.7275
2022-09-04T06:32:02.292626,0.0,0.778,0.063,7172.36,1.24,233.8,233.8,232.3,0.002,50.0,6182.95,855.65,70.0,-0.063,0.0,2.56,0.0,0.001,0.001,0.03,10.735
2022-09-04T06:45:16.7085,0.004,0.778,0.064,7172.38,1.26,233.0,234.1,233.1,0.001,49.99,6182.95,855.65,69.0,-0.06,0.0,2.61,0.0,0.001,0.001,0.03,10.74125
2022-09-04T06:58:31.515,0.029,0.778,0.176,7172.4,1.28,234.8,235.5,234.6,-0.021,49.99,6182.95,855.65,69.0,-0.147,0.0,2.66,0.0,0.001,0.001,0.03,10.75125
2022-09-04T07:11:46.1495,0.082,1.728,0.063,7172.48,1.36,234.1,235.8,233.8,0.0,50.02,6182.95,855.65,69.0,0.019,0.0,2.77,0.0,0.001,0.001,0.03,10.7575
2022-09-04T07:25:00.948355,0.221,1.728,0.072,7172.54,1.42,233.8,235.6,234.8,0.0,50.0,6182.95,855.66,69.0,0.149,0.01,2.82,0.0,0.001,0.001,0.03,10.76375
2022-09-04T07:38:15.2316,0.531,1.728,0.218,7172.57,1.45,233.8,234.1,232.6,0.004,49.95,6182.95,855.67,69.0,0.313,0.03,2.83,0.0,0.001,0.001,0.029,10.7725
2022-09-04T07:51:34.279,,,,,,,,,,,,,,,,,,0.001,0.001,0.03,10.78
2022-09-04T08:04:43.5939,1.558,1.728,0.0,7172.6,1.48,235.6,233.3,231.3,0.381,50.0,6182.97,855.67,70.0,1.558,0.33,2.83,0.0,0.001,0.001,0.029,10.78625
2022-09-04T08:17:58.6669,2.089,1.728,0.0,7172.6,1.48,237.6,236.1,235.1,0.555,49.99,6183.04,855.67,71.0,2.089,0.6,2.83,0.0,0.001,0.001,0.03,10.795
2022-09-04T08:31:13.4124,2.436,1.728,0.0,7172.6,1.48,237.8,232.6,234.5,0.773,49.97,6183.2,855.67,72.0,2.436,1.05,2.83,0.0,0.001,0.001,0.03,10.8025
2022-09-04T08:44:28.2374,2.73,1.728,0.0,7172.6,1.48,241.3,236.8,233.5,0.838,50.0,6183.37,855.67,73.0,2.725,1.52,2.83,0.0,0.001,0.001,0.03,10.80875
2022-09-04T08:57:43.2022,3.046,1.728,0.0,7172.6,1.48,239.3,234.8,231.1,0.946,50.0,6183.56,855.67,75.0,3.043,2.13,2.83,0.0,0.001,0.001,0.029,10.81625
2022-09-04T09:10:57.868,3.31,1.728,0.0,7172.6,1.48,242.1,239.3,232.1,1.035,49.99,6183.77,855.67,77.0,3.31,2.81,2.83,0.0,0.001,0.001,0.029,10.825
2022-09-04T09:20:06.886875,3.479,1.728,0.0,7172.6,1.48,239.8,237.1,232.8,1.092,50.02,6183.93,855.67,79.0,3.479,3.3,2.83,0.0,0.001,0.001,0.029,10.83