File: docs/data/huawei/huawei_sun2000_20220904193653.csv
local_time,input_power,day_active_power_peak,active_power,accumulated_yield_energy,daily_yield_energy,grid_voltage_a_phase,b_phase_voltage,c_phase_voltage,power_meter_active_power,grid_frequency,grid_exported_energy,grid_accumulated_energy,storage_state_of_capacity,storage_charge_discharge_power,storage_current_day_charge_capacity,storage_current_day_discharge_capacity,backup_switch_to_off_grid,a_phase_active_power,b_phase_active_power,c_phase_active_power,forward_energy
2022-09-04T19:39:01.203852,0.0,6.354,1.054,7203.4,32.28,227.1,236.3,233.6,-0.033,49.95,6220.35,855.92,86.0,-1.054,8.55,5.85,0.0,0.001,0.001,0.03,12.13875
2022-09-04T20:00:25.0317,0.0,6.354,0.755,7203.73,32.61,227.6,236.8,233.8,0.0,49.99,6220.35,855.92,85.0,-0.755,8.55,6.25,0.0,0.002,0.001,0.03,12.15125
2022-09-04T20:21:48.1471,0.0,6.354,1.061,7204.05,32.93,230.6,233.3,235.3,0.049,49.99,6220.35,855.92,84.0,-1.061,8.55,6.67,0.0,0.002,0.001,0.03,12.1625
2022-09-04T20:43:12.1994,0.0,6.354,0.936,7204.43,33.31,230.0,235.6,234.3,-0.038,50.02,6220.35,855.92,82.0,-0.936,8.55,7.13,0.0,0.001,0.001,0.03,12.17625
2022-09-04T21:04:36.0518,0.0,6.354,0.67,7204.71,33.59,228.8,234.8,234.8,-0.016,49.95,6220.35,855.94,81.0,-0.644,8.55,7.54,0.0,0.001,0.001,0.03,12.1875
2022-09-04T21:26:00.251244,0.0,6.354,0.553,7204.92,33.8,231.8,232.6,233.8,-0.001,50.0,6220.35,855.94,80.0,-0.553,8.55,7.82,0.0,0.001,0.001,0.03,12.2
2022-09-04T21:47:23.9381,0.0,6.354,0.838,7205.15,34.03,230.3,234.5,234.6,-0.034,50.02,6220.35,855.94,79.0,-0.838,8.55,8.12,0.0,0.001,0.001,0.03,12.2125
2022-09-04T22:08:47.8034,0.0,6.354,0.417,7205.38,34.26,230.8,236.0,235.1,-0.007,49.99,6220.35,855.94,78.0,-0.417,8.55,8.43,0.0,0.001,0.001,0.03,12.22375
2022-09-04T22:30:11.4319,0.0,6.354,0.593,7205.53,34.41,229.3,232.3,230.8,-0.001,49.95,6220.35,855.94,77.0,-0.593,8.55,8.66,0.0,0.001,0.001,0.029,12.23625
2022-09-04T22:51:35.417,0.0,6.354,0.596,7205.7,34.58,231.5,237.3,233.8,0.007,49.97,6220.35,855.94,76.0,-0.596,8.55,8.9,0.0,0.001,0.001,0.03,12.24875
2022-09-04T23:12:58.9859,0.0,6.354,0.385,7205.86,34.74,229.6,231.6,232.1,-0.003,50.02,6220.35,855.94,76.0,-0.385,8.55,9.15,0.0,0.001,0.001,0.03,12.26
2022-09-04T23:34:22.7701,0.0,6.354,0.519,7206.03,34.91,231.0,234.8,230.8,0.0,49.97,6220.35,855.94,75.0,-0.519,8.55,9.37,0.0,0.001,0.001,0.029,12.2725
2022-09-04T23:55:46.7948,0.0,6.354,0.446,7206.22,35.1,231.3,233.6,229.3,-0.004,50.0,6220.35,855.95,74.0,-0.443,8.55,9.67,0.0,0.002,0.001,0.029,12.28375
2022-09-05T00:17:10.3295,0.0,0.386,0.163,7206.29,0.05,231.8,232.8,231.8,-0.002,49.99,6220.35,855.95,74.0,-0.163,0.0,0.11,0.0,0.001,0.001,0.029,12.29625
2022-09-05T00:38:33.9989,0.0,0.386,0.152,7206.36,0.12,231.6,231.8,233.8,0.001,50.0,6220.35,855.95,73.0,-0.152,0.0,0.27,0.0,0.001,0.001,0.03,12.30875
2022-09-05T00:59:57.5162,0.0,0.386,0.152,7206.42,0.18,233.6,234.6,233.6,0.0,49.99,6220.35,855.95,73.0,-0.152,0.0,0.39,0.0,0.001,0.001,0.03,12.32
2022-09-05T01:21:21.3606,0.0,0.386,0.244,7206.48,0.24,233.3,233.8,232.6,-0.003,50.02,6220.35,855.95,72.0,-0.244,0.0,0.53,0.0,0.001,0.001,0.029,12.3325
2022-09-05T01:42:44.6649,0.0,0.386,0.179,7206.52,0.28,231.8,231.8,233.3,-0.001,50.0,6220.35,855.95,72.0,-0.179,0.0,0.64,0.0,0.001,0.001,0.03,12.34375
2022-09-05T02:04:08.741046,0.0,0.386,0.143,7206.58,0.34,234.6,235.3,234.1,0.002,49.93,6220.35,855.95,72.0,-0.143,0.0,0.77,0.0,0.001,0.001,0.03,12.35625
2022-09-05T02:25:32.6075,0.0,0.386,0.083,7206.62,0.38,233.3,234.3,231.8,0.0,50.0,6220.35,855.95,71.0,-0.083,0.0,0.88,0.0,0.001,0.001,0.029,12.3675
2022-09-05T02:46:56.8719,0.0,0.386,0.116,7206.66,0.42,232.8,235.1,233.3,-0.003,49.99,6220.35,855.95,71.0,-0.116,0.0,0.99,0.0,0.001,0.001,0.03,12.38
2022-09-05T03:08:20.371,0.0,0.386,0.124,7206.72,0.48,233.3,234.6,232.8,0.001,49.97,6220.35,855.95,71.0,-0.124,0.0,1.11,0.0,0.001,0.001,0.03,12.3925
2022-09-05T03:29:44.0579,0.0,0.386,0.077,7206.76,0.52,233.0,233.6,232.5,-0.001,50.0,6220.35,855.95,70.0,-0.077,0.0,1.23,0.0,0.001,0.001,0.03,12.40375
2022-09-05T03:51:07.724131,0.0,0.386,0.126,7206.8,0.56,234.8,235.3,233.3,-0.001,49.99,6220.35,855.95,70.0,-0.126,0.0,1.33,0.0,0.001,0.001,0.029,12.41625
2022-09-05T04:12:30.7144,0.0,0.59,0.542,7206.91,0.67,232.3,233.6,234.3,-0.086,49.97,6220.35,855.95,70.0,-0.542,0.0,1.52,0.0,0.001,0.001,0.03,12.4275
2022-09-05T04:33:54.2658,0.0,0.711,0.622,7207.12,0.88,231.1,234.3,232.6,-0.003,49.97,6220.35,855.95,69.0,-0.626,0.0,1.78,0.0,0.001,0.001,0.029,12.44
2022-09-05T04:55:17.8556,0.0,0.711,0.664,7207.33,1.09,231.6,235.3,232.6,0.002,50.0,6220.35,855.95,68.0,-0.664,0.0,2.09,0.0,0.002,0.001,0.029,12.4525
2022-09-05T05:16:40.93,0.0,0.711,0.076,7207.43,1.19,232.3,233.6,230.6,0.001,50.0,6220.35,855.95,67.0,-0.076,0.0,2.27,0.0,0.001,0.001,0.029,12.46375
2022-09-05T05:38:04.677811,0.0,0.711,0.095,7207.47,1.23,234.5,234.6,232.1,-0.004,49.97,6220.35,855.95,67.0,-0.095,0.0,2.37,0.0,0.001,0.001,0.029,12.47625
2022-09-05T05:59:27.7265,0.0,0.711,0.101,7207.51,1.27,232.3,232.3,231.6,0.001,50.02,6220.35,855.95,66.0,-0.101,0.0,2.48,0.0,0.001,0.001,0.03,12.4875
2022-09-05T06:20:51.4623,0.0,0.711,0.156,7207.58,1.34,230.8,235.0,231.8,0.0,49.99,6220.35,855.95,66.0,-0.156,0.0,2.62,0.0,0.001,0.001,0.03,12.5
2022-09-05T06:42:15.3037,0.02,1.703,1.695,7207.68,1.43,228.8,235.6,235.1,0.003,50.0,6220.35,855.95,65.0,-1.675,0.0,2.75,0.0,0.002,0.001,0.03,12.51125
2022-09-05T07:03:39.2498,0.069,1.703,0.153,7207.81,1.57,231.3,235.6,232.8,0.0,50.0,6220.35,855.96,65.0,-0.084,0.0,2.97,0.0,0.001,0.001,0.03,12.52375
2022-09-05T07:25:02.584927,0.137,1.703,0.174,7207.88,1.64,232.5,234.3,234.3,-0.016,50.0,6220.35,855.96,64.0,-0.037,0.0,3.05,0.0,0.001,0.001,0.03,12.53625
2022-09-05T07:46:26.649,1.09,1.703,0.064,7207.93,1.69,233.8,234.3,233.1,0.001,49.95,6220.35,856.0,64.0,1.026,0.09,3.08,0.0,0.001,0.001,0.03,12.5475
2022-09-05T08:07:50.3496,1.877,1.703,0.0,7207.93,1.69,233.1,232.8,233.1,0.465,50.0,6220.47,856.0,66.0,1.877,0.5,3.08,0.0,0.001,0.001,0.03,12.56
2022-09-05T08:29:13.9121,2.414,1.703,0.0,7207.93,1.69,234.5,234.3,233.8,0.761,50.0,6220.7,856.0,68.0,2.414,1.24,3.08,0.0,0.001,0.001,0.03,12.5725
2022-09-05T08:50:37.9803,2.66,1.703,0.0,7207.93,1.69,237.1,235.8,233.8,0.804,50.0,6221.0,856.0,70.0,2.66,2.03,3.08,0.0,0.001,0.001,0.03,12.58375
2022-09-05T09:12:02.116839,3.373,1.703,0.0,7207.93,1.69,239.6,238.1,231.1,1.022,50.02,6221.29,856.0,73.0,3.373,3.04,3.08,0.0,0.001,0.001,0.029,12.59625
2022-09-05T09:33:25.8722,2.848,1.703,0.0,7207.93,1.69,240.5,237.6,231.8,0.91,49.97,6221.62,856.0,76.0,2.848,4.01,3.08,0.0,0.001,0.001,0.029,12.6075
2022-09-05T09:54:49.1173,4.001,1.703,0.0,7207.93,1.69,236.6,236.8,234.6,1.253,50.04,6221.99,856.0,80.0,4.001,5.15,3.08,0.0,0.002,0.002,0.03,12.62
2022-09-05T10:16:12.6759,2.768,1.703,0.0,7207.93,1.69,233.3,236.1,229.3,0.693,49.97,6222.35,856.0,83.0,2.768,6.29,3.08,0.0,0.001,0.002,0.029,12.63375
2022-09-05T10:37:36.5626,4.473,1.703,0.0,7207.93,1.69,246.1,242.3,235.1,1.256,50.0,6222.68,856.0,87.0,4.473,7.27,3.08,0.0,0.001,0.001,0.028,12.645
2022-09-05T10:58:59.7271,4.102,1.703,0.0,7207.93,1.69,242.8,238.8,235.1,1.269,50.02,6223.12,856.0,90.0,4.102,8.55,3.08,0.0,0.002,0.001,0.03,12.6575
2022-09-05T11:20:22.5429,5.264,5.264,5.264,7208.3,2.06,249.3,242.3,239.3,6.946,49.97,6224.02,856.0,95.0,0.0,10.13,3.08,0.0,0.001,0.002,0.031,12.66875
2022-09-05T11:41:45.8831,5.537,5.541,5.537,7209.92,3.68,249.6,239.5,234.6,7.27,49.97,6226.16,856.0,95.0,0.0,10.13,3.08,0.0,0.001,0.001,0.029,12.68125
2022-09-05T12:03:09.371856,2.439,5.842,2.439,7211.21,4.97,240.1,232.6,233.6,3.032,49.97,6227.83,856.0,95.0,0.0,10.13,3.08,0.0,0.001,0.001,0.03,12.69375
2022-09-05T12:24:33.0907,2.572,5.842,2.572,7212.36,6.12,238.6,237.8,235.3,3.388,50.0,6229.35,856.0,95.0,0.0,10.13,3.08,0.0,0.001,0.001,0.03,12.70625
2022-09-05T12:45:57.3123,5.195,5.842,5.195,7213.37,7.13,249.1,243.1,238.8,7.002,50.0,6230.68,856.0,95.0,0.0,10.15,3.08,0.0,0.002,0.002,0.03,12.7175
2022-09-05T13:07:21.1427,5.454,5.842,5.454,7215.08,8.84,246.0,239.1,235.6,7.008,49.97,6232.95,856.0,95.0,0.0,10.15,3.08,0.0,0.002,0.002,0.03,12.73125
2022-09-05T13:28:44.3954,4.872,5.842,4.872,7216.93,10.69,243.6,241.3,237.6,6.209,50.02,6235.37,856.0,95.0,0.0,10.15,3.08,0.0,0.001,0.002,0.031,12.74375
2022-09-05T13:50:07.805493,5.703,5.842,5.703,7218.06,11.82,251.3,241.8,235.3,7.567,50.0,6236.87,856.0,95.0,0.0,10.16,3.08,0.0,0.001,0.002,0.03,12.75625
2022-09-05T14:11:31.4811,4.804,5.842,4.804,7219.87,13.63,249.3,239.5,234.6,6.366,50.0,6239.25,856.0,95.0,0.0,10.17,3.08,0.0,0.001,0.002,0.03,12.7675
2022-09-05T14:32:55.1304,4.554,5.842,4.554,7221.53,15.29,248.0,238.8,236.5,5.996,49.99,6241.45,856.0,95.0,0.0,10.17,3.08,0.0,0.001,0.002,0.03,12.78
2022-09-05T14:54:18.5727,4.309,5.842,4.309,7223.11,16.87,247.0,239.5,237.8,5.666,49.97,6243.5,856.0,95.0,0.0,10.17,3.08,0.0,0.001,0.002,0.03,12.79375
2022-09-05T15:15:42.1993,4.011,5.842,4.011,7224.57,18.33,246.8,237.8,236.8,5.281,49.97,6245.45,856.0,95.0,0.0,10.19,3.08,0.0,0.002,0.002,0.03,12.805
2022-09-05T15:37:05.985106,3.586,5.842,3.586,7225.93,19.69,243.3,238.5,237.8,4.683,50.0,6247.22,856.0,95.0,0.0,10.19,3.08,0.0,0.002,0.002,0.031,12.8175
2022-09-05T15:58:29.9949,3.142,5.842,3.142,7227.13,20.89,244.3,235.6,236.8,4.152,50.0,6248.74,856.0,95.0,0.0,10.19,3.08,0.0,0.001,0.002,0.03,12.83125
2022-09-05T16:19:53.7763,2.6,5.842,2.6,7228.15,21.91,241.8,236.3,234.8,-0.756,50.0,6249.58,856.0,95.0,0.0,10.2,3.09,0.0,0.761,0.728,0.862,13.3175
2022-09-05T16:41:17.6051,2.309,5.842,2.309,7228.98,22.74,243.3,233.6,232.8,3.023,49.97,6249.85,856.0,95.0,0.0,10.22,3.1,0.0,0.002,0.002,0.029,14.10125
2022-09-05T17:02:41.1995,1.782,5.842,1.782,7229.71,23.47,242.6,236.1,230.3,1.699,50.02,6250.66,856.0,95.0,0.0,10.22,3.1,0.0,0.002,0.002,0.029,14.11375
2022-09-05T17:24:05.407929,1.504,5.842,1.504,7230.28,24.04,239.1,234.8,227.1,1.34,49.97,6251.2,856.0,95.0,0.0,10.22,3.1,0.0,0.002,0.001,0.029,14.125
2022-09-05T17:45:29.2824,0.974,5.842,0.974,7230.69,24.45,237.1,235.8,235.0,1.163,49.97,6251.64,856.0,95.0,0.0,10.22,3.1,0.0,0.001,0.001,0.03,14.13875
2022-09-05T18:06:53.3355,0.369,5.842,0.369,7230.95,24.71,233.3,231.8,228.8,0.274,50.02,6251.95,856.0,95.0,0.0,10.23,3.1,0.0,0.001,0.001,0.029,14.14875
2022-09-05T18:28:17.434,0.29,5.842,0.642,7231.15,24.91,231.5,234.6,231.3,0.013,49.97,6252.02,856.0,95.0,-0.374,10.24,3.14,0.0,0.002,0.001,0.029,14.1625
2022-09-05T18:49:40.9895,0.138,5.842,0.674,7231.39,25.15,230.6,234.3,232.0,-0.022,49.97,6252.02,856.0,94.0,-0.536,10.24,3.36,0.0,0.001,0.001,0.029,14.17375
2022-09-05T19:06:14.0258,0.058,5.842,0.745,7231.59,25.35,231.3,235.1,231.0,-0.004,50.02,6252.02,856.0,93.0,-0.687,10.24,3.6,0.0,0.001,0.001,0.03,14.18375