File: docs/data/huawei/huawei_sun2000_20220901010709.csv
local_time,total_input_power,load_power,grid_power,total_battery_power,input_power,day_active_power_peak,active_power,accumulated_yield_energy,daily_yield_energy,grid_voltage_a_phase,b_phase_voltage,c_phase_voltage,power_meter_active_power,grid_frequency,grid_exported_energy,grid_accumulated_energy,storage_state_of_capacity,storage_charge_discharge_power,storage_current_day_charge_capacity,storage_current_day_discharge_capacity,system_time,backup_switch_to_off_grid,a_phase_active_power,b_phase_active_power,c_phase_active_power,forward_energy
2022-09-01T01:08:22.9227,0.0,0.08,0.002,-0.078,0.0,0.275,0.074,7075.0,0.14,233.3,235.3,236.3,-1.0,49.95,6081.68,855.04,82.0,-74.0,0.0,0.37,1661994497.0,0.0,1.0,1.0,30.0,5.85375
2022-09-01T01:28:35.5951,0.0,0.225,0.0,-0.225,0.0,0.378,0.219,7075.05,0.19,229.8,233.3,232.5,0.0,50.0,6081.68,855.04,81.0,-219.0,0.0,0.48,1661995709.0,0.0,1.0,1.0,30.0,5.865
2022-09-01T01:48:51.0153,0.0,0.211,0.0,-0.211,0.0,0.378,0.205,7075.09,0.23,232.1,232.6,232.6,0.0,50.0,6081.68,855.04,81.0,-205.0,0.0,0.59,1661996925.0,0.0,1.0,1.0,30.0,5.87625
2022-09-01T02:09:04.422771,0.0,0.351,0.0,-0.351,0.0,0.378,0.351,7075.14,0.28,234.6,236.1,235.1,0.0,49.99,6081.68,855.04,81.0,-350.0,0.0,0.69,1661998138.0,0.0,1.0,1.0,30.0,5.8875
2022-09-01T02:29:18.6508,0.0,0.255,0.0,-0.255,0.0,0.378,0.254,7075.24,0.38,232.1,231.3,230.6,-3.0,50.0,6081.68,855.04,80.0,-254.0,0.0,0.85,1661999353.0,0.0,1.0,1.0,29.0,5.8975
2022-09-01T02:49:33.1774,0.0,0.135,0.0,-0.135,0.0,0.378,0.134,7075.29,0.43,232.1,232.5,231.6,-1.0,50.0,6081.68,855.04,80.0,-139.0,0.0,0.99,1662000568.0,0.0,1.0,1.0,30.0,5.91
2022-09-01T03:09:50.8746,0.0,0.128,0.0,-0.128,0.0,0.378,0.127,7075.35,0.49,231.8,234.5,232.6,2.0,49.97,6081.68,855.04,79.0,-126.0,0.0,1.11,1662001786.0,0.0,1.0,1.0,30.0,5.92
2022-09-01T03:30:02.754911,0.0,0.121,0.001,-0.12,0.0,0.378,0.12,7075.4,0.54,232.3,234.6,233.0,-2.0,50.0,6081.68,855.04,79.0,-117.0,0.0,1.23,1662002998.0,0.0,1.0,1.0,29.0,5.93125
2022-09-01T03:50:19.2578,0.0,0.062,0.002,-0.06,0.0,0.378,0.06,7075.44,0.58,233.3,235.1,230.8,0.0,50.0,6081.68,855.04,79.0,-60.0,0.0,1.34,1662004212.0,0.0,1.0,1.0,30.0,5.9425
2022-09-01T04:10:36.4025,0.0,0.573,0.005,-0.568,0.0,0.578,0.574,7075.51,0.65,231.8,234.6,231.8,0.0,49.97,6081.68,855.04,78.0,-574.0,0.0,1.47,1662005431.0,0.0,1.0,1.0,30.0,5.95375
2022-09-01T04:30:49.9083,0.0,0.576,0.005,-0.571,0.0,0.677,0.569,7075.71,0.85,231.8,232.0,234.0,3.0,49.99,6081.68,855.04,78.0,-569.0,0.0,1.74,1662006644.0,0.0,1.0,1.0,30.0,5.965
2022-09-01T04:51:06.884440,0.0,0.522,0.003,-0.519,0.0,0.677,0.518,7075.9,1.04,230.1,235.3,233.3,6.0,50.0,6081.68,855.04,77.0,-518.0,0.0,1.99,1662007860.0,0.0,1.0,1.0,30.0,5.97625
2022-09-01T05:11:23.8922,0.0,0.197,0.048,-0.149,0.0,0.677,0.219,7076.02,1.16,233.3,234.0,233.3,0.0,50.0,6081.68,855.04,76.0,-216.0,0.0,2.21,1662009078.0,0.0,1.0,1.0,30.0,5.9875
2022-09-01T05:31:34.3907,0.0,0.208,0.002,-0.206,0.0,0.677,0.205,7076.07,1.21,232.3,231.8,232.6,0.0,50.0,6081.68,855.04,76.0,-203.0,0.0,2.32,1662010290.0,0.0,1.0,1.0,30.0,5.9975
2022-09-01T05:51:50.2059,0.0,0.153,0.0,-0.153,0.0,0.677,0.154,7076.11,1.25,231.1,232.3,231.5,1.0,50.0,6081.68,855.04,75.0,-153.0,0.0,2.42,1662011505.0,0.0,1.0,1.0,29.0,6.01
2022-09-01T06:12:02.712947,0.0,0.198,-0.001,-0.199,0.0,0.677,0.2,7076.14,1.28,231.3,233.8,232.6,0.0,49.99,6081.68,855.04,75.0,-203.0,0.0,2.52,1662012717.0,0.0,1.0,1.0,30.0,6.02125
2022-09-01T06:32:16.3204,0.0,0.133,0.0,-0.133,0.0,1.68,0.128,7076.26,1.4,231.3,234.5,230.8,-2.0,50.0,6081.68,855.05,74.0,-133.0,0.0,2.71,1662013930.0,0.0,1.0,1.0,29.0,6.03375
2022-09-01T06:52:29.0129,0.075,0.057,-0.021,-0.003,0.046,1.68,0.05,7076.3,1.44,228.8,232.6,230.5,19.0,49.97,6081.68,855.05,74.0,-4.0,0.0,2.79,1662015143.0,0.0,2.0,1.0,30.0,6.04375
2022-09-01T07:12:44.0126,0.318,0.182,0.009,0.145,0.223,1.68,0.087,7076.33,1.47,233.3,236.1,230.8,0.0,49.99,6081.68,855.07,74.0,141.0,0.01,2.82,1662016358.0,0.0,2.0,2.0,29.0,6.05625
2022-09-01T07:33:01.964164,0.374,0.177,0.009,0.206,0.274,1.68,0.056,7076.37,1.51,232.8,235.6,233.3,-10.0,50.0,6081.68,855.07,74.0,213.0,0.03,2.82,1662017576.0,0.0,2.0,1.0,30.0,6.06625
2022-09-01T07:53:14.1171,0.918,0.159,-0.084,0.675,0.673,1.68,0.0,7076.38,1.52,232.1,235.3,231.3,82.0,49.97,6081.7,855.07,74.0,673.0,0.11,2.82,1662018788.0,0.0,1.0,1.0,30.0,6.07875
2022-09-01T08:13:32.5613,1.448,0.161,-0.224,1.063,1.057,1.68,0.0,7076.38,1.52,234.8,237.6,232.5,220.0,49.99,6081.74,855.07,75.0,1056.0,0.33,2.82,1662020007.0,0.0,1.0,1.0,30.0,6.09
2022-09-01T08:33:48.2023,3.793,0.204,-0.794,2.795,2.644,1.68,0.0,7076.38,1.52,238.1,236.1,234.6,725.0,50.0,6081.85,855.07,76.0,2583.0,0.79,2.82,1662021222.0,0.0,1.0,2.0,30.0,6.10125
2022-09-01T08:54:02.710710,2.684,0.169,-0.536,1.979,2.299,1.68,0.0,7076.38,1.52,239.6,235.3,231.6,657.0,50.0,6082.06,855.07,79.0,2299.0,1.5,2.82,1662022437.0,0.0,1.0,1.0,30.0,6.11375
2022-09-01T09:14:14.8523,4.639,0.296,-0.939,3.404,3.69,1.68,0.0,7076.38,1.52,241.8,235.6,233.3,1078.0,50.0,6082.31,855.07,81.0,3728.0,2.21,2.82,1662023649.0,0.0,2.0,1.0,30.0,6.125
2022-09-01T09:34:29.2833,6.668,0.326,-1.373,4.969,4.337,1.68,0.0,7076.38,1.52,246.3,235.6,236.3,1080.0,50.0,6082.72,855.07,85.0,4337.0,3.6,2.82,1662024863.0,0.0,2.0,2.0,30.0,6.13625
2022-09-01T09:54:47.0686,6.481,0.322,-1.384,4.775,3.805,1.68,0.0,7076.38,1.52,243.1,238.6,234.8,1110.0,50.0,6083.14,855.07,89.0,3898.0,5.09,2.82,1662026080.0,0.0,2.0,1.0,30.0,6.1475
2022-09-01T10:15:01.510128,6.791,0.288,-6.503,0.0,5.002,5.101,5.002,7076.8,1.94,243.3,242.0,236.5,6470.0,49.99,6084.12,855.07,95.0,0.0,6.52,2.82,1662027295.0,0.0,1.0,2.0,29.0,6.15875
2022-09-01T10:35:17.6494,7.487,0.467,-7.02,0.0,5.533,5.537,5.533,7078.42,3.56,250.6,240.6,237.5,7125.0,49.97,6086.2,855.07,96.0,0.0,6.53,2.82,1662028512.0,0.0,2.0,1.0,30.0,6.17125
2022-09-01T10:55:30.5118,2.445,0.265,-2.18,0.0,1.777,5.948,1.777,7079.5,4.64,238.6,231.3,235.1,2145.0,49.99,6087.58,855.07,96.0,0.0,6.53,2.82,1662029725.0,0.0,1.0,1.0,29.0,6.1825
2022-09-01T11:15:43.7149,3.395,0.35,-3.045,0.0,1.955,5.948,1.955,7080.18,5.32,235.8,235.8,232.1,2391.0,49.97,6088.41,855.07,96.0,0.0,6.53,2.82,1662030937.0,0.0,1.0,1.0,29.0,6.19375
2022-09-01T11:35:58.4935,5.321,0.172,-5.149,0.0,3.763,5.986,3.763,7081.29,6.43,249.6,238.3,238.8,4885.0,49.99,6089.81,855.07,96.0,0.0,6.53,2.82,1662032154.0,0.0,1.0,1.0,30.0,6.205
2022-09-01T11:56:19.1473,,,,,2.297,5.986,2.297,7082.69,7.83,241.1,239.3,233.3,2881.0,50.0,6091.62,855.07,96.0,0.0,6.53,2.82,1662033373.0,0.0,1.0,1.0,30.0,6.2175
2022-09-01T12:16:30.1026,4.991,2.037,-2.954,0.0,3.735,6.227,3.735,7083.79,8.93,245.6,240.8,231.3,3147.0,50.0,6092.87,855.07,96.0,0.0,6.53,2.82,1662034585.0,0.0,2.0,1.0,29.0,6.22875
2022-09-01T12:36:44.1823,7.65,0.305,-7.345,0.0,6.199,7.599,6.199,7085.64,10.78,251.3,244.8,240.3,8067.0,49.97,6095.12,855.07,96.0,0.0,6.53,2.82,1662035799.0,0.0,2.0,1.0,31.0,6.24
2022-09-01T12:56:58.0846,3.792,0.156,-3.636,0.0,2.781,7.599,2.781,7086.82,11.96,237.1,234.3,235.3,3646.0,50.02,6096.62,855.07,96.0,0.0,6.54,2.82,1662037012.0,0.0,2.0,2.0,30.0,6.25125
2022-09-01T13:17:13.105,3.426,0.215,-3.211,0.0,2.498,7.599,2.498,7087.76,12.9,238.1,235.8,233.3,3205.0,50.0,6097.85,855.07,96.0,0.0,6.54,2.82,1662038229.0,0.0,1.0,1.0,30.0,6.26375
2022-09-01T13:37:27.2157,3.226,0.226,-3.0,0.0,2.404,7.599,2.404,7088.61,13.75,240.8,236.3,231.3,2962.0,50.0,6098.91,855.07,96.0,0.0,6.54,2.82,1662039441.0,0.0,2.0,2.0,29.0,6.275
2022-09-01T13:57:41.5336,7.548,0.335,-7.213,0.0,5.472,7.599,5.472,7090.02,15.16,244.3,241.8,236.6,7130.0,50.02,6100.75,855.07,96.0,0.0,6.54,2.82,1662040655.0,0.0,1.0,1.0,31.0,6.2875
2022-09-01T14:17:53.4202,5.186,0.366,-4.82,0.0,3.575,7.599,3.575,7091.57,16.7,240.1,238.8,235.8,4453.0,49.99,6102.75,855.07,96.0,0.0,6.54,2.82,1662041868.0,0.0,2.0,1.0,30.0,6.29875
2022-09-01T14:38:07.707377,6.363,0.35,-6.013,0.0,4.531,7.599,4.531,7092.92,18.06,243.5,239.8,235.3,5825.0,50.0,6104.49,855.07,96.0,0.0,6.54,2.82,1662043082.0,0.0,2.0,2.0,30.0,6.31
2022-09-01T14:58:23.0033,6.405,0.401,-6.004,0.0,4.673,7.599,4.673,7094.51,19.65,245.3,238.1,237.1,5995.0,49.99,6106.52,855.07,96.0,0.0,6.54,2.82,1662044298.0,0.0,2.0,2.0,30.0,6.3225
2022-09-01T15:18:37.0332,5.695,0.308,-5.387,0.0,4.18,7.599,4.18,7096.01,21.15,241.8,239.8,237.3,5402.0,49.97,6108.43,855.07,96.0,0.0,6.55,2.82,1662045512.0,0.0,2.0,2.0,30.0,6.33375
2022-09-01T15:38:53.3083,5.448,1.003,-4.445,0.0,3.925,7.599,3.925,7097.37,22.51,242.8,237.8,235.3,5024.0,49.97,6110.16,855.07,96.0,0.0,6.55,2.82,1662046728.0,0.0,1.0,2.0,30.0,6.345
2022-09-01T15:59:07.464517,4.633,0.376,-4.257,0.0,3.359,7.599,3.359,7098.57,23.71,245.1,234.5,237.8,4205.0,50.02,6111.49,855.07,96.0,0.0,6.55,2.82,1662047942.0,0.0,2.0,2.0,31.0,6.3575
2022-09-01T16:19:20.0174,4.877,3.604,-1.273,0.0,3.701,7.599,3.701,7099.71,24.85,236.8,241.0,239.8,1383.0,49.99,6112.75,855.07,96.0,0.0,6.55,2.82,1662049154.0,0.0,1.0,2.0,31.0,6.36875
2022-09-01T16:39:34.6015,1.325,1.137,-0.188,0.0,0.96,7.599,1.26,7100.31,25.45,235.3,233.1,234.5,959.0,50.0,6113.08,855.07,95.0,-300.0,6.55,2.84,1662050366.0,0.0,1.0,2.0,30.0,6.38
2022-09-01T16:59:49.2313,0.905,1.047,-0.459,-0.601,0.633,7.599,1.173,7100.64,25.78,222.8,238.8,236.8,300.0,50.02,6113.12,855.08,95.0,-1337.0,6.55,2.9,1662051585.0,0.0,1.0,1.0,30.0,6.39125
2022-09-01T17:20:08.799793,0.617,0.513,-0.104,0.0,,,,,,,,,,,,,,,,,,,2.0,1.0,30.0,6.40375
2022-09-01T17:40:23.1788,2.268,0.262,-2.006,0.0,0.901,7.599,0.901,7101.12,26.26,236.3,232.3,231.3,872.0,49.97,6113.35,855.09,95.0,0.0,6.56,3.03,1662054017.0,0.0,1.0,1.0,29.0,6.41625
2022-09-01T18:00:38.8424,0.423,0.417,-0.006,0.0,0.292,7.599,0.292,7101.27,26.41,233.1,238.1,233.8,12.0,50.04,6113.47,855.09,95.0,0.0,6.56,3.03,1662055232.0,0.0,1.0,2.0,30.0,6.42625
2022-09-01T18:20:52.5243,0.181,0.322,0.007,-0.134,0.127,7.599,0.257,7101.36,26.5,231.1,236.6,234.1,3.0,49.97,6113.47,855.09,95.0,-130.0,6.56,3.07,1662056447.0,0.0,1.0,2.0,30.0,6.43875
2022-09-01T18:41:08.534042,0.284,0.281,-0.003,0.0,0.201,7.599,0.201,7101.42,26.56,228.3,236.8,233.6,18.0,49.95,6113.47,855.09,95.0,0.0,6.56,3.08,1662057664.0,0.0,1.0,2.0,30.0,6.44875
2022-09-01T19:01:23.8176,0.141,0.939,0.001,-0.797,0.096,7.599,0.898,7101.66,26.8,231.3,236.6,234.0,-5.0,50.04,6113.47,855.09,95.0,-807.0,6.56,3.28,1662058878.0,0.0,1.0,2.0,30.0,6.46125
2022-09-01T19:14:55.5356,0.046,0.903,-0.001,-0.858,0.036,7.599,0.901,7101.85,26.99,232.0,234.1,228.5,0.0,50.0,6113.47,855.09,93.0,-860.0,6.57,3.52,1662059690.0,0.0,2.0,1.0,29.0,6.46875